2014-4-7        21:19

Voltage(V)           Current(A)           Current_density(mA/cm^2)           ABS(Current_density)

-5.000590E-1        -3.209580E-4        -5.349300E+0        5.349300E+0
-4.906740E-1        -3.135790E-4        -5.226317E+0        5.226317E+0
-4.812870E-1        -3.062680E-4        -5.104467E+0        5.104467E+0
-4.719030E-1        -2.989410E-4        -4.982350E+0        4.982350E+0
-4.625530E-1        -2.916030E-4        -4.860050E+0        4.860050E+0
-4.531700E-1        -2.844330E-4        -4.740550E+0        4.740550E+0
-4.437830E-1        -2.772950E-4        -4.621583E+0        4.621583E+0
-4.343990E-1        -2.700780E-4        -4.501300E+0        4.501300E+0
-4.250130E-1        -2.631310E-4        -4.385517E+0        4.385517E+0
-4.156700E-1        -2.563000E-4        -4.271667E+0        4.271667E+0
-4.062810E-1        -2.494250E-4        -4.157083E+0        4.157083E+0
-3.968950E-1        -2.426600E-4        -4.044333E+0        4.044333E+0
-3.875100E-1        -2.360480E-4        -3.934133E+0        3.934133E+0
-3.781630E-1        -2.294280E-4        -3.823800E+0        3.823800E+0
-3.687760E-1        -2.228440E-4        -3.714067E+0        3.714067E+0
-3.593890E-1        -2.165890E-4        -3.609817E+0        3.609817E+0
-3.500030E-1        -2.104010E-4        -3.506683E+0        3.506683E+0
-3.406570E-1        -2.041480E-4        -3.402467E+0        3.402467E+0
-3.312690E-1        -1.981630E-4        -3.302717E+0        3.302717E+0
-3.218840E-1        -1.923080E-4        -3.205133E+0        3.205133E+0
-3.124990E-1        -1.864230E-4        -3.107050E+0        3.107050E+0
-3.031160E-1        -1.807310E-4        -3.012183E+0        3.012183E+0
-2.937660E-1        -1.751040E-4        -2.918400E+0        2.918400E+0
-2.843790E-1        -1.696860E-4        -2.828100E+0        2.828100E+0
-2.749910E-1        -1.642470E-4        -2.737450E+0        2.737450E+0
-2.656050E-1        -1.589930E-4        -2.649883E+0        2.649883E+0
-2.562530E-1        -1.538550E-4        -2.564250E+0        2.564250E+0
-2.468690E-1        -1.487110E-4        -2.478517E+0        2.478517E+0
-2.374850E-1        -1.438060E-4        -2.396767E+0        2.396767E+0
-2.281000E-1        -1.390360E-4        -2.317267E+0        2.317267E+0
-2.187140E-1        -1.342760E-4        -2.237933E+0        2.237933E+0
-2.093600E-1        -1.296900E-4        -2.161500E+0        2.161500E+0
-1.999680E-1        -1.250960E-4        -2.084933E+0        2.084933E+0
-1.905940E-1        -1.206780E-4        -2.011300E+0        2.011300E+0
-1.812210E-1        -1.163240E-4        -1.938733E+0        1.938733E+0
-1.718450E-1        -1.121130E-4        -1.868550E+0        1.868550E+0
-1.624750E-1        -1.080440E-4        -1.800733E+0        1.800733E+0
-1.531040E-1        -1.041030E-4        -1.735050E+0        1.735050E+0
-1.437300E-1        -1.002450E-4        -1.670750E+0        1.670750E+0
-1.343550E-1        -9.652970E-5        -1.608828E+0        1.608828E+0
-1.249830E-1        -9.280090E-5        -1.546682E+0        1.546682E+0
-1.156080E-1        -8.766190E-5        -1.461032E+0        1.461032E+0
-1.062320E-1        -8.421830E-5        -1.403638E+0        1.403638E+0
-9.685650E-2        -8.084370E-5        -1.347395E+0        1.347395E+0
-8.747940E-2        -7.757550E-5        -1.292925E+0        1.292925E+0
-7.810680E-2        -7.440720E-5        -1.240120E+0        1.240120E+0
-6.872850E-2        -7.132970E-5        -1.188828E+0        1.188828E+0
-5.935110E-2        -6.836650E-5        -1.139442E+0        1.139442E+0
-4.997250E-2        -6.547370E-5        -1.091228E+0        1.091228E+0
-4.059960E-2        -6.267180E-5        -1.044530E+0        1.044530E+0
-3.122070E-2        -5.998000E-5        -9.996667E-1        9.996667E-1
-2.184240E-2        -5.736830E-5        -9.561383E-1        9.561383E-1
-1.246360E-2        -5.483400E-5        -9.139000E-1        9.139000E-1
-3.086330E-3        -5.240000E-5        -8.733333E-1        8.733333E-1
6.185530E-3        -5.006330E-5        -8.343883E-1        8.343883E-1
1.556140E-2        -4.778520E-5        -7.964200E-1        7.964200E-1
2.493960E-2        -4.558680E-5        -7.597800E-1        7.597800E-1
3.431740E-2        -4.346940E-5        -7.244900E-1        7.244900E-1
4.369440E-2        -4.141650E-5        -6.902750E-1        6.902750E-1
5.307150E-2        -3.943990E-5        -6.573317E-1        6.573317E-1
6.244730E-2        -3.754440E-5        -6.257400E-1        6.257400E-1
7.182100E-2        -3.571110E-5        -5.951850E-1        5.951850E-1
8.119810E-2        -3.395680E-5        -5.659467E-1        5.659467E-1
9.057160E-2        -3.227330E-5        -5.378883E-1        5.378883E-1
9.994590E-2        -3.065910E-5        -5.109850E-1        5.109850E-1
1.093210E-1        -2.910070E-5        -4.850117E-1        4.850117E-1
1.186940E-1        -2.760460E-5        -4.600767E-1        4.600767E-1
1.280690E-1        -2.616180E-5        -4.360300E-1        4.360300E-1
1.374470E-1        -2.478840E-5        -4.131400E-1        4.131400E-1
1.468170E-1        -2.345910E-5        -3.909850E-1        3.909850E-1
1.561910E-1        -2.218740E-5        -3.697900E-1        3.697900E-1
1.655600E-1        -2.097450E-5        -3.495750E-1        3.495750E-1
1.749340E-1        -1.982410E-5        -3.304017E-1        3.304017E-1
1.843060E-1        -1.871500E-5        -3.119167E-1        3.119167E-1
1.936780E-1        -1.764970E-5        -2.941617E-1        2.941617E-1
2.030730E-1        -1.663590E-5        -2.772650E-1        2.772650E-1
2.124230E-1        -1.566770E-5        -2.611283E-1        2.611283E-1
2.218110E-1        -1.473900E-5        -2.456500E-1        2.456500E-1
2.311980E-1        -1.385650E-5        -2.309417E-1        2.309417E-1
2.405790E-1        -1.301670E-5        -2.169450E-1        2.169450E-1
2.499320E-1        -1.221840E-5        -2.036400E-1        2.036400E-1
2.593190E-1        -1.145570E-5        -1.909283E-1        1.909283E-1
2.687050E-1        -1.073130E-5        -1.788550E-1        1.788550E-1
2.780890E-1        -1.004140E-5        -1.673567E-1        1.673567E-1
2.874380E-1        -9.387850E-6        -1.564642E-1        1.564642E-1
2.968270E-1        -8.762120E-6        -1.460353E-1        1.460353E-1
3.062150E-1        -8.168360E-6        -1.361393E-1        1.361393E-1
3.155980E-1        -7.607840E-6        -1.267973E-1        1.267973E-1
3.249470E-1        -7.077360E-6        -1.179560E-1        1.179560E-1
3.343360E-1        -6.573390E-6        -1.095565E-1        1.095565E-1
3.437240E-1        -6.094610E-6        -1.015768E-1        1.015768E-1
3.531070E-1        -5.643620E-6        -9.406033E-2        9.406033E-2
3.624600E-1        -5.216000E-6        -8.693333E-2        8.693333E-2
3.718470E-1        -4.809010E-6        -8.015017E-2        8.015017E-2
3.812330E-1        -4.427710E-6        -7.379517E-2        7.379517E-2
3.906150E-1        -4.068980E-6        -6.781633E-2        6.781633E-2
3.999700E-1        -3.730420E-6        -6.217367E-2        6.217367E-2
4.093580E-1        -3.409430E-6        -5.682383E-2        5.682383E-2
4.187430E-1        -3.107250E-6        -5.178750E-2        5.178750E-2
4.281230E-1        -2.824820E-6        -4.708033E-2        4.708033E-2
4.374760E-1        -2.559380E-6        -4.265633E-2        4.265633E-2
4.468610E-1        -2.307210E-6        -3.845350E-2        3.845350E-2
4.562500E-1        -2.070920E-6        -3.451533E-2        3.451533E-2
4.655960E-1        -1.848900E-6        -3.081500E-2        3.081500E-2
4.749820E-1        -1.638600E-6        -2.731000E-2        2.731000E-2
4.843700E-1        -1.440530E-6        -2.400883E-2        2.400883E-2
4.937600E-1        -1.253700E-6        -2.089500E-2        2.089500E-2
5.031050E-1        -1.078530E-6        -1.797550E-2        1.797550E-2
5.124930E-1        -9.135600E-7        -1.522600E-2        1.522600E-2
5.218820E-1        -7.565620E-7        -1.260937E-2        1.260937E-2
5.312660E-1        -6.274150E-7        -1.045692E-2        1.045692E-2
5.406150E-1        -4.853800E-7        -8.089667E-3        8.089667E-3
5.500030E-1        -3.497220E-7        -5.828700E-3        5.828700E-3
5.593900E-1        -2.187480E-7        -3.645800E-3        3.645800E-3
5.687730E-1        -9.278300E-8        -1.546383E-3        1.546383E-3
5.781190E-1        3.321770E-8        5.536283E-4        5.536283E-4
5.875030E-1        1.490940E-7        2.484900E-3        2.484900E-3
5.968870E-1        2.675610E-7        4.459350E-3        4.459350E-3
6.062690E-1        3.874600E-7        6.457667E-3        6.457667E-3
6.156200E-1        5.069490E-7        8.449150E-3        8.449150E-3
6.250100E-1        6.282760E-7        1.047127E-2        1.047127E-2
6.343940E-1        7.527530E-7        1.254588E-2        1.254588E-2
6.437810E-1        8.802400E-7        1.467067E-2        1.467067E-2
6.531300E-1        1.011880E-6        1.686467E-2        1.686467E-2
6.625160E-1        1.150170E-6        1.916950E-2        1.916950E-2
6.719050E-1        1.317820E-6        2.196367E-2        2.196367E-2
6.812890E-1        1.470780E-6        2.451300E-2        2.451300E-2
6.906370E-1        1.629210E-6        2.715350E-2        2.715350E-2
7.000270E-1        1.799250E-6        2.998750E-2        2.998750E-2
7.094140E-1        1.978770E-6        3.297950E-2        3.297950E-2
7.187960E-1        2.169560E-6        3.615933E-2        3.615933E-2
7.281420E-1        2.370790E-6        3.951317E-2        3.951317E-2
7.375310E-1        2.585790E-6        4.309650E-2        4.309650E-2
7.469150E-1        2.813460E-6        4.689100E-2        4.689100E-2
7.562990E-1        3.054510E-6        5.090850E-2        5.090850E-2
7.656510E-1        3.308700E-6        5.514500E-2        5.514500E-2
7.750370E-1        3.576960E-6        5.961600E-2        5.961600E-2
7.844200E-1        3.864970E-6        6.441617E-2        6.441617E-2
7.938060E-1        4.167380E-6        6.945633E-2        6.945633E-2
8.031560E-1        4.488860E-6        7.481433E-2        7.481433E-2
8.125410E-1        4.824510E-6        8.040850E-2        8.040850E-2
8.219280E-1        5.181570E-6        8.635950E-2        8.635950E-2
8.313070E-1        5.557430E-6        9.262383E-2        9.262383E-2
8.406570E-1        5.948710E-6        9.914517E-2        9.914517E-2
8.500420E-1        6.365260E-6        1.060877E-1        1.060877E-1
8.594330E-1        6.804450E-6        1.134075E-1        1.134075E-1
8.688090E-1        7.263470E-6        1.210578E-1        1.210578E-1
8.781600E-1        7.743740E-6        1.290623E-1        1.290623E-1
8.875470E-1        8.248400E-6        1.374733E-1        1.374733E-1
8.969290E-1        8.778130E-6        1.463022E-1        1.463022E-1
9.062790E-1        9.325650E-6        1.554275E-1        1.554275E-1
9.156650E-1        9.905660E-6        1.650943E-1        1.650943E-1
9.250490E-1        1.051650E-5        1.752750E-1        1.752750E-1
9.344340E-1        1.114820E-5        1.858033E-1        1.858033E-1
9.437780E-1        1.180720E-5        1.967867E-1        1.967867E-1
9.531640E-1        1.249560E-5        2.082600E-1        2.082600E-1
9.625530E-1        1.321950E-5        2.203250E-1        2.203250E-1
9.719360E-1        1.397280E-5        2.328800E-1        2.328800E-1
9.812840E-1        1.475360E-5        2.458933E-1        2.458933E-1
9.906700E-1        1.557620E-5        2.596033E-1        2.596033E-1
1.000060E+0        1.642000E-5        2.736667E-1        2.736667E-1



Voc (V)                5.781190E-1

Jsc (ma/cm^2)        -8.733333E-1

Fill Factor        1.146301E-1

Power convertion efficiency        -5.787564E-4

Lamp Power        1.000000E+2



